LabVIEW Measurement	
Writer_Version	0.92
Reader_Version	1
Separator	Tab
Multi_Headings	Yes
X_Columns	No
Time_Pref	Relative
Operator	Administrator
Date	2008/03/26
Time	22:42:08.703125
***End_of_Header***	
	
Channels	1	
Samples	500	
Date	2008/03/26	
Time	22:42:08.703125	
X_Dimension	Time	
X0	0.0000000000000000E+0	
Delta_X	1.000000	
***End_of_Header***		
X_Value	Untitled	Comment
	-0.000153
	-0.000303
	-8.115974E-5
	-0.000291
	-0.000196
	-0.000199
	-0.000343
	-0.000111
	-0.000263
	-0.000211
	-0.000176
	-0.000373
	-0.000143
	-0.000318
	-0.000228
	-0.000199
	-0.000358
	-0.000154
	-0.000294
	-0.000289
	-0.000181
	-0.000373
	-0.000158
	-0.000286
	-0.000299
	-0.000179
	-0.000363
	-0.000178
	-0.000279
	-0.000309
	-0.000213
	-0.000356
	-0.000228
	-0.000259
	-0.000363
	-0.000154
	-0.000358
	-0.000251
	-0.000218
	-0.000373
	-0.000169
	-0.000349
	-0.000236
	-0.000269
	-0.000381
	-0.000184
	-0.000316
	-0.000274
	-0.000266
	-0.000364
	-0.000198
	-0.000319
	-0.000259
	-0.000238
	-0.000399
	-0.000236
	-0.000278
	-0.000276
	-0.000249
	-0.000409
	-0.000198
	-0.000329
	-0.000336
	-0.000243
	-0.000383
	-0.000233
	-0.000256
	-0.000333
	-0.000248
	-0.000356
	-0.000196
	-0.000283
	-0.000351
	-0.000186
	-0.000396
	-0.000226
	-0.000276
	-0.000384
	-0.000196
	-0.000386
	-0.000249
	-0.000301
	-0.000381
	-0.000239
	-0.000371
	-0.000236
	-0.000229
	-0.000376
	-0.000179
	-0.000349
	-0.000313
	-0.000221
	-0.000381
	-0.000191
	-0.000384
	-0.000304
	-0.000208
	-0.000379
	-0.000168
	-0.000369
	-0.000299
	-0.000261
	-0.000394
	-0.000223
	-0.000363
	-0.000309
	-0.000214
	-0.000361
	-0.000211
	-0.000331
	-0.000334
	-0.000229
	-0.000424
	-0.000258
	-0.000363
	-0.000323
	-0.000178
	-0.000449
	-0.000298
	-0.000258
	-0.000448
	-0.000196
	-0.000376
	-0.000293
	-0.000298
	-0.000339
	-0.000151
	-0.000419
	-0.000309
	-0.000213
	-0.000403
	-0.000246
	-0.000373
	-0.000294
	-0.000236
	-0.000478
	-0.000178
	-0.000326
	-0.000354
	-0.000284
	-0.000409
	-0.000189
	-0.000333
	-0.000384
	-0.000284
	-0.000428
	-0.000218
	-0.000284
	-0.000343
	-0.000189
	-0.000446
	-0.000273
	-0.000338
	-0.000388
	-0.000154
	-0.000348
	-0.000206
	-0.000296
	-0.000403
	-0.000224
	-0.000443
	-0.000283
	-0.000311
	-0.000438
	-0.000221
	-0.000433
	-0.000344
	-0.000259
	-0.000423
	-0.000254
	-0.000456
	-0.000356
	-0.000293
	-0.000516
	-0.000241
	-0.000448
	-0.000351
	-0.000261
	-0.000403
	-0.000154
	-0.000343
	-0.000314
	-0.000268
	-0.000464
	-0.000194
	-0.000363
	-0.000348
	-0.000181
	-0.000461
	-0.000259
	-0.000379
	-0.000446
	-0.000238
	-0.000434
	-0.000234
	-0.000361
	-0.000441
	-0.000248
	-0.000481
	-0.000214
	-0.000314
	-0.000413
	-0.000298
	-0.000494
	-0.000228
	-0.000229
	-0.000431
	-0.000223
	-0.000373
	-0.000283
	-0.000289
	-0.000384
	-0.000179
	-0.000394
	-0.000273
	-0.000198
	-0.000458
	-0.000206
	-0.000353
	-0.000308
	-0.000179
	-0.000446
	-0.000199
	-0.000364
	-0.000318
	-0.000184
	-0.000443
	-0.000204
	-0.000328
	-0.000316
	-0.000193
	-0.000456
	-0.000168
	-0.000379
	-0.000293
	-0.000236
	-0.000409
	-0.000216
	-0.000324
	-0.000381
	-0.000201
	-0.000411
	-0.000223
	-0.000341
	-0.000393
	-0.000193
	-0.000433
	-0.000311
	-0.000356
	-0.000388
	-0.000206
	-0.000464
	-0.000241
	-0.000306
	-0.000416
	-0.000199
	-0.000456
	-0.000263
	-0.000296
	-0.000413
	-0.000163
	-0.000439
	-0.000344
	-0.000236
	-0.000444
	-0.000193
	-0.000376
	-0.000333
	-0.000236
	-0.000379
	-0.000243
	-0.000393
	-0.000371
	-0.000211
	-0.000394
	-0.000236
	-0.000369
	-0.000388
	-0.000268
	-0.000428
	-0.000229
	-0.000348
	-0.000369
	-0.000224
	-0.000424
	-0.000223
	-0.000371
	-0.000348
	-0.000196
	-0.000399
	-0.000223
	-0.000341
	-0.000398
	-0.000233
	-0.000418
	-0.000284
	-0.000313
	-0.000439
	-0.000229
	-0.000433
	-0.000313
	-0.000349
	-0.000456
	-0.000241
	-0.000438
	-0.000334
	-0.000294
	-0.000439
	-0.000221
	-0.000466
	-0.000328
	-0.000304
	-0.000436
	-0.000226
	-0.000384
	-0.000329
	-0.000253
	-0.000438
	-0.000246
	-0.000388
	-0.000401
	-0.000268
	-0.000468
	-0.000254
	-0.000446
	-0.000416
	-0.000283
	-0.000513
	-0.000326
	-0.000466
	-0.000461
	0.009056
	0.063487
	0.144318
	0.247700
	0.370338
	0.536082
	0.728059
	0.927987
	1.113256
	1.293231
	1.473623
	1.656630
	1.846528
	2.024165
	2.188357
	2.361182
	2.540956
	2.751243
	2.975953
	3.184455
	3.372393
	3.557937
	3.751942
	3.944798
	4.144865
	4.355292
	4.567605
	4.775708
	4.985359
	5.195855
	5.422340
	5.659047
	5.892494
	6.109275
	6.315773
	6.527348
	6.747823
	6.981130
	7.228507
	7.461642
	7.677345
	7.900580
	8.135215
	8.357159
	8.554816
	8.742294
	8.920546
	9.106233
	9.299656
	9.485632
	9.680462
	9.894068
	10.061136
	10.220605
	10.382921
	10.545910
	10.699225
	10.840485
	10.979245
	11.120764
	11.260355
	11.404160
	11.555301
	11.694411
	11.828494
	11.971945
	12.118236
	12.265223
	12.406670
	12.537029
	12.670772
	12.812093
	12.957375
	13.101591
	13.242252
	13.371470
	13.501948
	13.642842
	13.792840
	13.939023
	14.083317
	14.230469
	14.379461
	14.532133
	14.668541
	14.778859
	14.873796
	14.954805
	15.029734
	15.109953
	15.189180
	15.265000
	15.336973
	15.403879
	15.459354
	15.515487
	15.575581
	15.634940
	15.688508
	15.735815
	15.775926
	15.812333
	15.858921
	15.903895
	15.942841
	15.973008
	16.003213
	16.034225
	16.069573
	16.103343
	16.131671
	16.158516
	16.187207
	16.216289
	16.244529
	16.270662
	16.295370
	16.318835
	16.344065
	16.369333
	16.393604
	16.419284
	16.444515
	16.468441
	16.490054
	16.510166
	16.531410
	16.554815
	16.579350
	16.602860
	16.623657
	16.644585
	16.663896
	16.684870
	16.706844
	16.726567
	16.745585
	16.765197
	16.785231
	16.804427
	16.824557
	16.844483
	16.862703
	16.880222
	16.897451
	16.913985
	16.932362
	16.952314
	16.970574
	16.987649
	17.004112
	17.020471
	17.038002
	17.055924
	17.072702
	17.088782
	17.104745
	17.120987
	17.136843
	17.152472
	17.167554
	17.181901
	17.195975
	17.211029
	17.226352
	17.241149
	17.256724
	17.271415
	17.283985

